361976 U	S STAND	ARD							
2.70000 1	0	0  33.6	0000 11	6.44261	0	0.57	065   0	0	
									
WL	H2O	O3	MOLEC						
(NM)	TRANS	TRANS	SCAT						
250	1	0	0.096						
250.5	1	0	0.0981						
251	1	0	0.1001						
251.5	1	0	0.1022						
252	1	0	0.1043						
252.5	1	0	0.1064						
253	1	0	0.1085						
253.5	1	0	0.1107						
254	1	0	0.1128						
254.5	1	0	0.115						
255	1	0	0.1172						
255.5	1	0	0.1194						
256	1	0	0.1216						
256.5	1	0	0.1239						
257	1	0	0.1262						
257.5	1	0	0.1284						
258	1	0	0.1307						
258.5	1	0	0.133						
259	1	0	0.1353						
259.5	1	0	0.1377						
260	1	0	0.14						
260.5	1	0	0.1424						
261	1	0	0.1448						
261.5	1	0	0.1472						
262	1	0	0.1496						
262.5	1	0	0.152						
263	1	0	0.1544						
263.5	1	0	0.1569						
264	1	0	0.1593						
264.5	1	0	0.1618						
265	1	0	0.1642						
265.5	1	0	0.1667						
266	1	0	0.1692						
266.5	1	0	0.1717						
267	1	0	0.1743						
267.5	1	0	0.1768						
268	1	0	0.1793						
268.5	1	0	0.1819						
269	1	0	0.1844						
269.5	1	0	0.187						
270	1	0	0.1895						
270.5	1	0	0.1921						
271	1	0	0.1947						
271.5	1	0	0.1973						
272	1	0	0.1999						
272.5	1	0	0.2025						
273	1	0	0.2051						
273.5	1	0	0.2078						
274	1	0	0.2104						
274.5	1	0	0.213						
275	1	0	0.2157						
275.5	1	0	0.2183						
276	1	0	0.2209						
276.5	1	0	0.2236						
277	1	0	0.2263						
277.5	1	0	0.2289						
278	1	0	0.2316						
278.5	1	0	0.2343						
279	1	0	0.2369						
279.5	1	0	0.2396						
280	1	0	0.2423						
280.5	1	0	0.245						
281	1	0	0.2477						
281.5	1	0	0.2504						
282	1	0	0.2531						
282.5	1	0	0.2557						
283	1	0	0.2584						
283.5	1	0	0.2611						
284	1	0	0.2638						
284.5	1	0	0.2665						
285	1	0	0.2692						
285.5	1	0	0.2719						
286	1	0	0.2746						
286.5	1	0	0.2773						
287	1	0	0.28						
287.5	1	0	0.2828						
288	1	0	0.2855						
288.5	1	0	0.2882						
289	1	0	0.2909						
289.5	1	0	0.2936						
290	1	0	0.2963						
290.5	1	0	0.299						
291	1	0	0.3016						
291.5	1	0	0.3043						
292	1	0	0.307						
292.5	1	0	0.3097						
293	1	0	0.3124						
293.5	1	0.0001	0.3151						
294	1	0.0002	0.3178						
294.5	1	0.0003	0.3205						
295	1	0.0005	0.3231						
295.5	1	0.0008	0.3258						
296	1	0.0013	0.3285						
296.5	1	0.002	0.3312						
297	1	0.0029	0.3338						
297.5	1	0.0044	0.3365						
298	1	0.0064	0.3392						
298.5	1	0.0086	0.3418						
299	1	0.0117	0.3445						
299.5	1	0.0163	0.3471						
300	1	0.0213	0.3498						
300.5	1	0.027	0.3524						
301	1	0.0352	0.3551						
301.5	1	0.0443	0.3577						
302	1	0.0528	0.3603						
302.5	1	0.0646	0.3629						
303	1	0.0801	0.3656						
303.5	1	0.0939	0.3682						
304	1	0.1056	0.3708						
304.5	1	0.123	0.3734						
305	1	0.1472	0.376						
305.5	1	0.1683	0.3786						
306	1	0.1826	0.3812						
306.5	1	0.2009	0.3837						
307	1	0.2308	0.3863						
307.5	1	0.2614	0.3889						
308	1	0.2807	0.3914						
308.5	1	0.2968	0.394						
309	1	0.3205	0.3966						
309.5	1	0.3564	0.3991						
310	1	0.387	0.4016						
310.5	1	0.4059	0.4042						
311	1	0.4237	0.4067						
311.5	1	0.4452	0.4092						
312	1	0.4794	0.4117						
312.5	1	0.5139	0.4142						
313	1	0.5327	0.4167						
313.5	1	0.5402	0.4192						
314	1	0.5659	0.4217						
314.5	1	0.6067	0.4242						
315	1	0.6274	0.4267						
315.5	1	0.6292	0.4291						
316	1	0.6495	0.4316						
316.5	1	0.6841	0.4341						
317	1	0.6994	0.4365						
317.5	1	0.6998	0.4389						
318	1	0.7182	0.4414						
318.5	1	0.7579	0.4438						
319	1	0.7822	0.4462						
319.5	1	0.7746	0.4486						
320	1	0.772	0.451						
320.5	1	0.8034	0.4534						
321	1	0.8419	0.4558						
321.5	1	0.851	0.4582						
322	1	0.831	0.4605						
322.5	1	0.8225	0.4629						
323	1	0.849	0.4653						
323.5	1	0.8902	0.4676						
324	1	0.9066	0.4699						
324.5	1	0.8914	0.4723						
325	1	0.8743	0.4746						
325.5	1	0.8848	0.4769						
326	1	0.913	0.4792						
326.5	1	0.9357	0.4815						
327	1	0.9366	0.4838						
327.5	1	0.9217	0.4861						
328	1	0.9106	0.4884						
328.5	1	0.9263	0.4906						
329	1	0.9526	0.4929						
329.5	1	0.9651	0.4951						
330	1	0.9607	0.4974						
330.5	1	0.9479	0.4996						
331	1	0.9413	0.5018						
331.5	1	0.9498	0.5041						
332	1	0.9674	0.5063						
332.5	1	0.9777	0.5085						
333	1	0.9764	0.5107						
333.5	1	0.967	0.5128						
334	1	0.9635	0.515						
334.5	1	0.9731	0.5172						
335	1	0.9835	0.5193						
335.5	1	0.9889	0.5215						
336	1	0.9887	0.5236						
336.5	1	0.9839	0.5258						
337	1	0.9775	0.5279						
337.5	1	0.9757	0.53						
338	1	0.9826	0.5321						
338.5	1	0.9901	0.5342						
339	1	0.9932	0.5363						
339.5	1	0.9924	0.5384						
340	1	0.9888	0.5405						
340.5	1	0.9877	0.5426						
341	1	0.9913	0.5446						
341.5	1	0.9948	0.5467						
342	1	0.9964	0.5487						
342.5	1	0.9967	0.5507						
343	1	0.996	0.5528						
343.5	1	0.994	0.5548						
344	1	0.9915	0.5568						
344.5	1	0.9921	0.5588						
345	1	0.9948	0.5608						
345.5	1	0.9967	0.5628						
346	1	0.9978	0.5647						
346.5	1	0.9985	0.5667						
347	1	0.9983	0.5687						
347.5	1	0.9978	0.5706						
348	1	0.9982	0.5726						
348.5	1	0.999	0.5745						
349	1	0.9994	0.5764						
349.5	1	0.9995	0.5783						
350	1	0.9995	0.5802						
350.5	1	0.9995	0.5821						
351	1	0.9992	0.584						
351.5	1	0.9984	0.5859						
352	1	0.9983	0.5878						
352.5	1	0.9988	0.5897						
353	1	0.9994	0.5915						
353.5	1	0.9997	0.5934						
354	1	0.9998	0.5952						
354.5	1	0.9998	0.597						
355	1	0.9997	0.5989						
355.5	1	0.9997	0.6007						
356	1	0.9997	0.6025						
356.5	1	0.9996	0.6043						
357	1	0.9995	0.6061						
357.5	1	0.9995	0.6079						
358	1	0.9996	0.6097						
358.5	1	0.9997	0.6114						
359	1	0.9997	0.6132						
359.5	1	0.9996	0.6149						
360	1	0.9996	0.6167						
360.5	1	0.9997	0.6184						
361	1	0.9997	0.6201						
361.5	1	0.9997	0.6219						
362	1	0.9998	0.6236						
362.5	1	0.9998	0.6253						
363	1	0.9999	0.627						
363.5	1	0.9999	0.6287						
364	1	0.9999	0.6304						
364.5	1	0.9998	0.632						
365	1	0.9999	0.6337						
365.5	1	0.9999	0.6354						
366	1	1	0.637						
366.5	1	1	0.6387						
367	1	1	0.6403						
367.5	1	1	0.6419						
368	1	1	0.6435						
368.5	1	1	0.6452						
369	1	1	0.6468						
369.5	1	1	0.6484						
370	1	1	0.65						
370.5	1	1	0.6515						
371	1	1	0.6531						
371.5	1	1	0.6547						
372	1	1	0.6562						
372.5	1	1	0.6578						
373	1	1	0.6593						
373.5	1	1	0.6609						
374	1	1	0.6624						
374.5	1	1	0.6639						
375	1	1	0.6655						
375.5	1	1	0.667						
376	1	1	0.6685						
376.5	1	1	0.67						
377	1	1	0.6715						
377.5	1	1	0.6729						
378	1	1	0.6744						
378.5	1	1	0.6759						
379	1	1	0.6773						
379.5	1	1	0.6788						
380	1	1	0.6802						
380.5	1	1	0.6817						
381	1	1	0.6831						
381.5	1	1	0.6845						
382	1	1	0.686						
382.5	1	1	0.6874						
383	1	1	0.6888						
383.5	1	1	0.6902						
384	1	1	0.6915						
384.5	1	1	0.6929						
385	1	1	0.6943						
385.5	1	1	0.6957						
386	1	1	0.697						
386.5	1	1	0.6984						
387	1	1	0.6998						
387.5	1	1	0.7011						
388	1	1	0.7025						
388.5	1	1	0.7038						
389	1	1	0.7051						
389.5	1	1	0.7064						
390	1	1	0.7078						
390.5	1	1	0.7091						
391	1	1	0.7104						
391.5	1	1	0.7116						
392	1	1	0.7129						
392.5	1	1	0.7142						
393	1	1	0.7155						
393.5	1	1	0.7167						
394	1	1	0.718						
394.5	1	1	0.7193						
395	1	1	0.7205						
395.5	1	1	0.7217						
396	1	1	0.723						
396.5	1	1	0.7242						
397	1	1	0.7254						
397.5	1	1	0.7267						
398	1	1	0.7279						
398.5	1	1	0.7291						
399	1	1	0.7303						
399.5	1	1	0.7315						
400	1	1	0.7327						
400.5	1	1	0.7338						
401	1	1	0.735						
401.5	1	1	0.7362						
402	1	1	0.7374						
402.5	1	1	0.7385						
403	1	1	0.7397						
403.5	1	1	0.7408						
404	1	1	0.742						
404.5	1	1	0.7431						
405	1	1	0.7442						
405.5	1	1	0.7454						
406	1	1	0.7465						
406.5	1	1	0.7476						
407	1	1	0.7487						
407.5	1	1	0.7498						
408	1	0.9999	0.7509						
408.5	1	0.9999	0.752						
409	1	0.9999	0.7531						
409.5	1	0.9999	0.7542						
410	1	0.9999	0.7552						
410.5	1	0.9999	0.7563						
411	1	0.9999	0.7574						
411.5	1	0.9999	0.7584						
412	1	0.9999	0.7595						
412.5	1	0.9999	0.7606						
413	1	0.9999	0.7616						
413.5	1	0.9999	0.7626						
414	1	0.9999	0.7637						
414.5	1	0.9999	0.7647						
415	1	0.9999	0.7657						
415.5	1	0.9999	0.7668						
416	1	0.9999	0.7678						
416.5	1	0.9999	0.7688						
417	1	0.9998	0.7698						
417.5	1	0.9998	0.7708						
418	1	0.9998	0.7718						
418.5	1	0.9998	0.7728						
419	1	0.9998	0.7737						
419.5	1	0.9998	0.7747						
420	1	0.9998	0.7757						
420.5	1	0.9998	0.7767						
421	1	0.9998	0.7776						
421.5	1	0.9998	0.7786						
422	1	0.9998	0.7795						
422.5	1	0.9998	0.7805						
423	1	0.9997	0.7814						
423.5	1	0.9997	0.7824						
424	1	0.9997	0.7833						
424.5	1	0.9996	0.7843						
425	1	0.9996	0.7852						
425.5	1	0.9996	0.7861						
426	1	0.9995	0.787						
426.5	1	0.9995	0.7879						
427	1	0.9995	0.7889						
427.5	1	0.9996	0.7898						
428	1	0.9996	0.7907						
428.5	1	0.9996	0.7916						
429	1	0.9996	0.7924						
429.5	1	0.9996	0.7933						
430	1	0.9996	0.7942						
430.5	1	0.9996	0.7951						
431	1	0.9996	0.796						
431.5	1	0.9995	0.7968						
432	1	0.9995	0.7977						
432.5	1	0.9995	0.7986						
433	1	0.9994	0.7994						
433.5	1	0.9994	0.8003						
434	1	0.9994	0.8011						
434.5	1	0.9994	0.802						
435	1	0.9994	0.8028						
435.5	1	0.9994	0.8036						
436	1	0.9994	0.8045						
436.5	1	0.9994	0.8053						
437	1	0.9994	0.8061						
437.5	1	0.9993	0.8069						
438	1	0.9993	0.8078						
438.5	1	0.9992	0.8086						
439	1	0.9991	0.8094						
439.5	1	0.9991	0.8102						
440	1	0.999	0.811						
440.5	1	0.9989	0.8118						
441	1	0.9988	0.8126						
441.5	0.9999	0.9987	0.8134						
442	0.9998	0.9987	0.8141						
442.5	0.9996	0.9986	0.8149						
443	0.9996	0.9986	0.8157						
443.5	0.9998	0.9986	0.8165						
444	0.9998	0.9986	0.8172						
444.5	0.9998	0.9986	0.818						
445	0.9998	0.9987	0.8188						
445.5	0.9998	0.9987	0.8195						
446	0.9998	0.9987	0.8203						
446.5	0.9999	0.9988	0.821						
447	0.9999	0.9988	0.8218						
447.5	1	0.9988	0.8225						
448	1	0.9988	0.8233						
448.5	1	0.9987	0.824						
449	1	0.9986	0.8247						
449.5	1	0.9986	0.8255						
450	1	0.9985	0.8262						
450.5	1	0.9985	0.8269						
451	1	0.9984	0.8276						
451.5	1	0.9984	0.8283						
452	1	0.9984	0.8291						
452.5	1	0.9984	0.8298						
453	1	0.9984	0.8305						
453.5	1	0.9984	0.8312						
454	1	0.9984	0.8319						
454.5	1	0.9983	0.8326						
455	1	0.9983	0.8332						
455.5	1	0.9982	0.8339						
456	1	0.9981	0.8346						
456.5	1	0.998	0.8353						
457	1	0.9978	0.836						
457.5	1	0.9977	0.8366						
458	1	0.9975	0.8373						
458.5	1	0.9973	0.838						
459	1	0.9971	0.8386						
459.5	1	0.9969	0.8393						
460	1	0.9968	0.84						
460.5	1	0.9966	0.8406						
461	1	0.9965	0.8413						
461.5	1	0.9965	0.8419						
462	1	0.9964	0.8426						
462.5	1	0.9964	0.8432						
463	1	0.9964	0.8438						
463.5	1	0.9965	0.8445						
464	1	0.9966	0.8451						
464.5	1	0.9967	0.8457						
465	1	0.9968	0.8464						
465.5	1	0.9969	0.847						
466	1	0.9969	0.8476						
466.5	1	0.9969	0.8482						
467	1	0.9968	0.8488						
467.5	1	0.9967	0.8495						
468	1	0.9966	0.8501						
468.5	1	0.9965	0.8507						
469	0.9999	0.9964	0.8513						
469.5	0.9999	0.9963	0.8519						
470	0.9999	0.9963	0.8525						
470.5	0.9999	0.9962	0.8531						
471	0.9999	0.9961	0.8537						
471.5	0.9999	0.9961	0.8542						
472	0.9999	0.9961	0.8548						
472.5	0.9999	0.9961	0.8554						
473	0.9999	0.9961	0.856						
473.5	0.9999	0.996	0.8566						
474	1	0.996	0.8571						
474.5	1	0.9958	0.8577						
475	1	0.9956	0.8583						
475.5	1	0.9954	0.8589						
476	1	0.9952	0.8594						
476.5	1	0.9949	0.86						
477	1	0.9946	0.8605						
477.5	1	0.9942	0.8611						
478	1	0.9939	0.8616						
478.5	1	0.9936	0.8622						
479	1	0.9932	0.8627						
479.5	1	0.9929	0.8633						
480	1	0.9925	0.8638						
480.5	1	0.9922	0.8644						
481	1	0.992	0.8649						
481.5	1	0.9918	0.8654						
482	1	0.9917	0.866						
482.5	1	0.9916	0.8665						
483	1	0.9916	0.867						
483.5	1	0.9917	0.8676						
484	1	0.9918	0.8681						
484.5	1	0.992	0.8686						
485	0.9999	0.9922	0.8691						
485.5	0.9999	0.9923	0.8696						
486	0.9999	0.9924	0.8701						
486.5	1	0.9925	0.8707						
487	0.9999	0.9925	0.8712						
487.5	0.9999	0.9925	0.8717						
488	0.9999	0.9924	0.8722						
488.5	0.9999	0.9923	0.8727						
489	0.9999	0.9922	0.8732						
489.5	0.9999	0.992	0.8737						
490	1	0.9918	0.8742						
490.5	1	0.9917	0.8747						
491	1	0.9916	0.8751						
491.5	1	0.9915	0.8756						
492	1	0.9914	0.8761						
492.5	1	0.9914	0.8766						
493	1	0.9913	0.8771						
493.5	1	0.9912	0.8775						
494	1	0.9911	0.878						
494.5	1	0.991	0.8785						
495	1	0.9909	0.879						
495.5	1	0.9907	0.8794						
496	1	0.9905	0.8799						
496.5	1	0.9903	0.8804						
497	1	0.99	0.8808						
497.5	1	0.9896	0.8813						
498	1	0.9892	0.8817						
498.5	1	0.9888	0.8822						
499	1	0.9884	0.8827						
499.5	1	0.9879	0.8831						
500	1	0.9874	0.8836						
500.5	0.9999	0.9868	0.884						
501	0.9999	0.9863	0.8845						
501.5	0.9998	0.9858	0.8849						
502	0.9996	0.9853	0.8853						
502.5	0.9994	0.9848	0.8858						
503	0.999	0.9844	0.8862						
503.5	0.9982	0.984	0.8867						
504	0.9977	0.9837	0.8871						
504.5	0.9982	0.9834	0.8875						
505	0.999	0.9833	0.8879						
505.5	0.9991	0.9831	0.8884						
506	0.9988	0.9831	0.8888						
506.5	0.9989	0.9832	0.8892						
507	0.9988	0.9833	0.8896						
507.5	0.9988	0.9834	0.8901						
508	0.9988	0.9835	0.8905						
508.5	0.9991	0.9837	0.8909						
509	0.9994	0.9838	0.8913						
509.5	0.9995	0.9839	0.8917						
510	0.9996	0.984	0.8921						
510.5	0.9997	0.9841	0.8925						
511	0.9998	0.9841	0.8929						
511.5	0.9998	0.984	0.8933						
512	0.9999	0.9839	0.8938						
512.5	0.9999	0.9838	0.8942						
513	0.9999	0.9836	0.8945						
513.5	1	0.9834	0.8949						
514	1	0.9832	0.8953						
514.5	1	0.983	0.8958						
515	1	0.9828	0.8961						
515.5	1	0.9826	0.8965						
516	1	0.9825	0.8969						
516.5	1	0.9823	0.8973						
517	1	0.9821	0.8977						
517.5	1	0.982	0.898						
518	1	0.9818	0.8984						
518.5	1	0.9816	0.8988						
519	1	0.9814	0.8992						
519.5	1	0.9812	0.8996						
520	1	0.981	0.9						
520.5	1	0.9807	0.9004						
521	1	0.9804	0.9007						
521.5	1	0.9801	0.9011						
522	1	0.9798	0.9015						
522.5	1	0.9794	0.9018						
523	1	0.979	0.9022						
523.5	1	0.9785	0.9026						
524	0.9999	0.9781	0.9029						
524.5	0.9999	0.9776	0.9033						
525	0.9999	0.977	0.9036						
525.5	0.9999	0.9765	0.9039						
526	1	0.976	0.9043						
526.5	0.9999	0.9755	0.9046						
527	0.9999	0.9749	0.905						
527.5	0.9999	0.9744	0.9054						
528	1	0.9739	0.9057						
528.5	1	0.9734	0.9061						
529	1	0.9729	0.9064						
529.5	0.9999	0.9725	0.9068						
530	1	0.9721	0.9071						
530.5	1	0.9717	0.9074						
531	1	0.9714	0.9078						
531.5	1	0.971	0.9081						
532	1	0.9708	0.9085						
532.5	1	0.9706	0.9088						
533	1	0.9704	0.9091						
533.5	1	0.9703	0.9094						
534	1	0.9702	0.9098						
534.5	1	0.9702	0.9101						
535	1	0.9702	0.9104						
535.5	1	0.9702	0.9107						
536	1	0.9703	0.9111						
536.5	1	0.9703	0.9114						
537	1	0.9703	0.9117						
537.5	1	0.9702	0.912						
538	1	0.9701	0.9124						
538.5	0.9999	0.97	0.9127						
539	0.9999	0.9698	0.913						
539.5	0.9998	0.9696	0.9133						
540	0.9997	0.9694	0.9136						
540.5	0.9994	0.9691	0.9139						
541	0.999	0.9689	0.9142						
541.5	0.9989	0.9686	0.9145						
542	0.9991	0.9683	0.9149						
542.5	0.9993	0.968	0.9152						
543	0.9994	0.9676	0.9155						
543.5	0.9993	0.9673	0.9158						
544	0.9993	0.967	0.9161						
544.5	0.9994	0.9668	0.9164						
545	0.9994	0.9665	0.9167						
545.5	0.9993	0.9663	0.917						
546	0.9991	0.9661	0.9173						
546.5	0.9991	0.9659	0.9176						
547	0.9994	0.9657	0.9179						
547.5	0.9996	0.9655	0.9181						
548	0.9997	0.9654	0.9184						
548.5	0.9997	0.9652	0.9187						
549	0.9998	0.9651	0.919						
549.5	0.9998	0.965	0.9193						
550	0.9998	0.9648	0.9196						
550.5	0.9999	0.9646	0.9199						
551	0.9999	0.9645	0.9202						
551.5	0.9999	0.9643	0.9204						
552	0.9999	0.9641	0.9207						
552.5	1	0.9639	0.921						
553	1	0.9637	0.9213						
553.5	1	0.9634	0.9216						
554	1	0.9632	0.9218						
554.5	1	0.9629	0.9221						
555	1	0.9626	0.9224						
555.5	1	0.9623	0.9227						
556	1	0.9619	0.9229						
556.5	1	0.9616	0.9232						
557	1	0.9612	0.9235						
557.5	1	0.9608	0.9238						
558	1	0.9603	0.924						
558.5	1	0.9598	0.9243						
559	1	0.9594	0.9245						
559.5	1	0.9589	0.9248						
560	1	0.9584	0.9251						
560.5	1	0.9579	0.9253						
561	1	0.9574	0.9256						
561.5	1	0.9569	0.9259						
562	1	0.9564	0.9261						
562.5	1	0.9559	0.9264						
563	1	0.9554	0.9266						
563.5	1	0.955	0.9269						
564	1	0.9546	0.9271						
564.5	1	0.9542	0.9274						
565	1	0.9539	0.9276						
565.5	1	0.9536	0.9279						
566	1	0.9533	0.9281						
566.5	0.9999	0.9529	0.9284						
567	0.9998	0.9526	0.9286						
567.5	0.9996	0.9523	0.9289						
568	0.9992	0.9521	0.9291						
568.5	0.9984	0.9518	0.9294						
569	0.9979	0.9515	0.9296						
569.5	0.998	0.9512	0.9299						
570	0.9981	0.9509	0.9301						
570.5	0.9988	0.9506	0.9303						
571	0.9993	0.9504	0.9306						
571.5	0.9992	0.9501	0.9308						
572	0.9987	0.9499	0.9311						
572.5	0.9986	0.9498	0.9313						
573	0.9987	0.9496	0.9315						
573.5	0.9989	0.9496	0.9318						
574	0.9989	0.9495	0.932						
574.5	0.9988	0.9495	0.9322						
575	0.999	0.9496	0.9325						
575.5	0.9992	0.9497	0.9327						
576	0.9993	0.9498	0.9329						
576.5	0.9994	0.95	0.9331						
577	0.9994	0.9502	0.9334						
577.5	0.9994	0.9504	0.9336						
578	0.9996	0.9506	0.9338						
578.5	0.9997	0.9508	0.934						
579	0.9998	0.951	0.9343						
579.5	0.9998	0.9512	0.9345						
580	0.9999	0.9515	0.9347						
580.5	0.9999	0.9517	0.9349						
581	0.9999	0.9519	0.9352						
581.5	0.9999	0.9522	0.9354						
582	0.9999	0.9524	0.9356						
582.5	0.9999	0.9526	0.9358						
583	0.9998	0.9527	0.936						
583.5	0.9998	0.9529	0.9363						
584	0.9998	0.953	0.9365						
584.5	0.9997	0.9532	0.9367						
585	0.9997	0.9533	0.9369						
585.5	0.9996	0.9534	0.9371						
586	0.9994	0.9535	0.9373						
586.5	0.999	0.9535	0.9375						
587	0.9985	0.9535	0.9377						
587.5	0.9975	0.9535	0.938						
588	0.9955	0.9535	0.9382						
588.5	0.9922	0.9534	0.9384						
589	0.9893	0.9533	0.9386						
589.5	0.989	0.9533	0.9388						
590	0.9888	0.9531	0.939						
590.5	0.9904	0.9529	0.9392						
591	0.9922	0.9527	0.9394						
591.5	0.9913	0.9524	0.9396						
592	0.9892	0.9521	0.9398						
592.5	0.9902	0.9518	0.94						
593	0.9934	0.9515	0.9402						
593.5	0.9945	0.951	0.9404						
594	0.9919	0.9506	0.9406						
594.5	0.9884	0.9502	0.9408						
595	0.9902	0.9497	0.941						
595.5	0.9939	0.9493	0.9412						
596	0.9955	0.9488	0.9414						
596.5	0.9958	0.9483	0.9416						
597	0.9951	0.9478	0.9418						
597.5	0.9954	0.9474	0.9419						
598	0.9963	0.947	0.9421						
598.5	0.9972	0.9466	0.9423						
599	0.9975	0.9463	0.9425						
599.5	0.9979	0.9459	0.9427						
600	0.9984	0.9457	0.9429						
600.5	0.9989	0.9455	0.9431						
601	0.9993	0.9454	0.9433						
601.5	0.9995	0.9453	0.9435						
602	0.9996	0.9452	0.9436						
602.5	0.9998	0.9452	0.9438						
603	0.9999	0.9452	0.944						
603.5	0.9999	0.9454	0.9442						
604	0.9999	0.9455	0.9444						
604.5	1	0.9457	0.9446						
605	1	0.9459	0.9447						
605.5	1	0.9462	0.9449						
606	1	0.9465	0.9451						
606.5	1	0.9469	0.9453						
607	1	0.9473	0.9454						
607.5	1	0.9477	0.9456						
608	1	0.9481	0.9458						
608.5	1	0.9485	0.946						
609	1	0.949	0.9462						
609.5	1	0.9494	0.9463						
610	1	0.9499	0.9465						
610.5	1	0.9504	0.9467						
611	1	0.9508	0.9468						
611.5	1	0.9513	0.947						
612	1	0.9517	0.9472						
612.5	1	0.9521	0.9474						
613	1	0.9525	0.9475						
613.5	1	0.953	0.9477						
614	1	0.9534	0.9479						
614.5	1	0.9537	0.948						
615	1	0.9541	0.9482						
615.5	1	0.9545	0.9484						
616	1	0.9549	0.9485						
616.5	1	0.9552	0.9487						
617	1	0.9555	0.9489						
617.5	1	0.9559	0.949						
618	1	0.9562	0.9492						
618.5	1	0.9565	0.9494						
619	1	0.9568	0.9495						
619.5	1	0.9571	0.9497						
